Keithley 6487, temperature 3.810 kOhm, IV-curve with average sweep, 10 points per voltage, LED 100 uA, voltage step 0.01
 Sweep settings: Start voltage: 21 V, end voltage:  23.5 V, sweep points: 250.0, current limit: 0.0025 A
 U/V, I/A, R/Ohm
21,2.2306114000000004e-10
21.01,3.7196219999999975e-11
21.020000000000003,8.381348399999999e-10
21.030000000000005,7.5295639e-10
21.040000000000006,4.002448100000001e-10
21.050000000000008,5.5241287e-10
21.06000000000001,4.4138844960000005e-10
21.07000000000001,7.79007893e-10
21.080000000000013,7.678434590000001e-10
21.090000000000014,6.162977600000001e-10
21.100000000000016,8.362769600000001e-10
21.110000000000017,6.4689694e-10
21.12000000000002,5.406291e-10
21.13000000000002,8.327619836e-10
21.140000000000022,6.293226281e-10
21.150000000000023,5.956221100000002e-10
21.160000000000025,8.848607700000003e-10
21.170000000000027,8.714213099999998e-10
21.180000000000028,6.617821200000001e-10
21.19000000000003,7.3621169e-10
21.20000000000003,5.3959513e-10
21.210000000000033,7.982354100000001e-10
21.220000000000034,9.038832399999998e-10
21.230000000000036,8.35243102e-10
21.240000000000038,1.123241105e-09
21.25000000000004,8.075392099999999e-10
21.26000000000004,5.914878499999999e-10
21.270000000000042,1.012837345e-09
21.280000000000044,1.3500419499999998e-09
21.290000000000045,6.4854862e-10
21.300000000000047,7.116062299999999e-10
21.31000000000005,7.9844096e-10
21.32000000000005,7.22979573e-10
21.33000000000005,9.9774624e-10
21.340000000000053,1.08416657e-09
21.350000000000055,1.512959131e-09
21.360000000000056,9.361357700000002e-10
21.370000000000058,1.0715548600000002e-09
21.38000000000006,1.1546670899999998e-09
21.39000000000006,8.8651652e-10
21.400000000000063,1.14267571e-09
21.410000000000064,1.2061468999999999e-09
21.420000000000066,1.1313045800000001e-09
21.430000000000067,1.25018406e-09
21.44000000000007,1.1430890050000003e-09
21.45000000000007,1.4048298400000001e-09
21.460000000000072,1.062870259e-09
21.470000000000073,1.36575389e-09
21.480000000000075,1.2255804809999998e-09
21.490000000000077,1.2909127499999999e-09
21.500000000000078,1.000846935e-09
21.51000000000008,1.9510546699999997e-09
21.52000000000008,9.61357424e-10
21.530000000000083,1.760434081e-09
21.540000000000084,1.4292258799999999e-09
21.550000000000086,1.7244599399999998e-09
21.560000000000088,1.4077245299999999e-09
21.57000000000009,1.9797923999999998e-09
21.58000000000009,1.7472026999999997e-09
21.590000000000092,1.6328715599999999e-09
21.600000000000094,1.6161254699999998e-09
21.610000000000095,1.7682909999999998e-09
21.620000000000097,1.7653967e-09
21.6300000000001,1.7951682e-09
21.6400000000001,1.8602936000000001e-09
21.6500000000001,1.866289e-09
21.660000000000103,1.9297598999999997e-09
21.670000000000105,1.8778666e-09
21.680000000000106,2.0779970000000003e-09
21.690000000000108,2.004189e-09
21.70000000000011,2.1067350999999998e-09
21.71000000000011,2.1425027000000004e-09
21.720000000000113,2.0844065000000004e-09
21.730000000000114,2.2456689e-09
21.740000000000116,2.4282265e-09
21.750000000000117,2.0403693e-09
21.76000000000012,2.2562130999999998e-09
21.77000000000012,2.3841892e-09
21.780000000000122,2.3422201e-09
21.790000000000123,2.4017628e-09
21.800000000000125,2.4532428999999998e-09
21.810000000000127,2.535734e-09
21.820000000000128,2.5330466999999994e-09
21.83000000000013,2.6360063e-09
21.84000000000013,2.6411752e-09
21.850000000000133,2.6721873999999996e-09
21.860000000000134,2.7362789999999997e-09
21.870000000000136,2.8590860999999995e-09
21.880000000000138,2.8628076e-09
21.89000000000014,2.9171814999999997e-09
21.90000000000014,2.9696956999999997e-09
21.910000000000142,3.0036019e-09
21.920000000000144,3.141502e-09
21.930000000000145,3.1125573000000002e-09
21.940000000000147,3.1398476e-09
21.95000000000015,3.3277804999999996e-09
21.96000000000015,3.1491515e-09
21.97000000000015,3.3277804e-09
21.980000000000153,3.4204032000000005e-09
21.990000000000155,3.3548646e-09
22.000000000000156,3.4931783e-09
22.010000000000158,3.5721563e-09
22.02000000000016,3.6420354999999994e-09
22.03000000000016,3.24177414e-09
22.040000000000163,3.739206799999999e-09
22.050000000000164,3.7993698e-09
22.060000000000166,3.796268e-09
22.070000000000167,3.9304471e-09
22.08000000000017,4.1675851e-09
22.09000000000017,3.943058900000001e-09
22.100000000000172,3.9035704e-09
22.110000000000174,4.1278901e-09
22.120000000000175,4.1878467e-09
22.130000000000177,4.2810891e-09
22.140000000000178,4.203558799999999e-09
22.15000000000018,4.3619268999999995e-09
22.16000000000018,4.5347666e-09
22.170000000000183,4.377640000000001e-09
22.180000000000184,4.2932866999999995e-09
22.190000000000186,4.9052567e-09
22.200000000000188,4.7342773e-09
22.21000000000019,4.747715699999999e-09
22.22000000000019,4.8678361e-09
22.230000000000192,4.824625900000001e-09
22.240000000000194,4.9989132e-09
22.250000000000195,4.9422647000000005e-09
22.260000000000197,5.289804799999999e-09
22.2700000000002,5.2540385e-09
22.2800000000002,5.009663299999999e-09
22.2900000000002,5.3456265e-09
22.300000000000203,5.4808389e-09
22.310000000000205,5.3927645e-09
22.320000000000206,5.4961381999999994e-09
22.330000000000208,5.5945495e-09
22.34000000000021,5.7574659e-09
22.35000000000021,5.5751146000000004e-09
22.360000000000213,5.709913999999999e-09
22.370000000000214,5.9040493e-09
22.380000000000216,5.7593263e-09
22.390000000000217,6.0080423e-09
22.40000000000022,6.1943215e-09
22.41000000000022,6.2257475e-09
22.420000000000222,6.256552e-09
22.430000000000224,6.2747456e-09
22.440000000000225,6.6638427000000005e-09
22.450000000000227,6.4562689000000006e-09
22.46000000000023,6.440763299999999e-09
22.47000000000023,6.4138862000000005e-09
22.48000000000023,6.6779014e-09
22.490000000000233,7.0357801e-09
22.500000000000234,6.7637021999999996e-09
22.510000000000236,6.9814057e-09
22.520000000000238,7.1813310999999996e-09
22.53000000000024,7.1552794e-09
22.54000000000024,7.265268099999999e-09
22.550000000000242,7.260100600000001e-09
22.560000000000244,7.493724499999999e-09
22.570000000000245,7.412885499999999e-09
22.580000000000247,7.666770700000001e-09
22.59000000000025,7.643821100000001e-09
22.60000000000025,7.7800673e-09
22.61000000000025,7.900188400000002e-09
22.620000000000253,7.9617981e-09
22.630000000000255,7.8404383e-09
22.640000000000256,8.0279557e-09
22.650000000000258,8.084190900000001e-09
22.66000000000026,8.186738000000002e-09
22.67000000000026,8.525387799999998e-09
22.680000000000263,8.4910678e-09
22.690000000000264,8.561360299999999e-09
22.700000000000266,8.7201419e-09
22.710000000000267,8.737923399999999e-09
22.72000000000027,8.8747903e-09
22.73000000000027,8.823722200000001e-09
22.740000000000272,9.066030400000001e-09
22.750000000000274,9.2808388e-09
22.760000000000275,9.1977278e-09
22.770000000000277,9.1679554e-09
22.78000000000028,9.4243204e-09
22.79000000000028,9.5986094e-09
22.80000000000028,9.778894100000002e-09
22.810000000000283,9.8363662e-09
22.820000000000285,9.621350600000002e-09
22.830000000000286,9.772895799999999e-09
22.840000000000288,9.9781963e-09
22.85000000000029,9.955866900000002e-09
22.86000000000029,1.0319328400000002e-08
22.870000000000292,1.04832786e-08
22.880000000000294,1.03073341e-08
22.890000000000295,1.0460328e-08
22.900000000000297,1.0686714000000001e-08
22.9100000000003,1.076507e-08
22.9200000000003,1.0749979999999997e-08
22.9300000000003,1.0932743999999999e-08
22.940000000000303,1.1176912999999999e-08
22.950000000000305,1.1046662000000001e-08
22.960000000000306,1.1224668000000001e-08
22.970000000000308,1.1333004e-08
22.98000000000031,1.1447128000000001e-08
22.99000000000031,1.1922436e-08
23.000000000000313,1.1981154e-08
23.010000000000314,1.1700598000000001e-08
23.020000000000316,1.1987149000000001e-08
23.030000000000317,1.2026018999999999e-08
23.04000000000032,1.2147172999999998e-08
23.05000000000032,1.2377488999999998e-08
23.060000000000322,1.2425661000000001e-08
23.070000000000324,1.2527586999999999e-08
23.080000000000325,1.2652874000000002e-08
23.090000000000327,1.2793461e-08
23.10000000000033,1.2933221999999999e-08
23.11000000000033,1.3058715000000001e-08
23.12000000000033,1.3099237999999998e-08
23.130000000000333,1.3188348e-08
23.140000000000335,1.3517902e-08
23.150000000000336,1.3203232e-08
23.160000000000338,1.3529684e-08
23.17000000000034,1.3807966000000001e-08
23.18000000000034,1.3744289000000002e-08
23.190000000000342,1.4018435e-08
23.200000000000344,1.3928912e-08
23.210000000000345,1.4312841e-08
23.220000000000347,1.4402983e-08
23.23000000000035,1.4583263000000002e-08
23.24000000000035,1.4729433000000003e-08
23.25000000000035,1.4917778e-08
23.260000000000353,1.4902892999999997e-08
23.270000000000355,1.5201846e-08
23.280000000000356,1.5192336e-08
23.290000000000358,1.5460901e-08
23.30000000000036,1.5467101e-08
23.31000000000036,1.5547728999999998e-08
23.320000000000363,1.5771639e-08
23.330000000000364,1.5887831e-08
23.340000000000366,1.609313e-08
23.350000000000367,1.6062324e-08
23.36000000000037,1.6303804e-08
23.37000000000037,1.6517167000000002e-08
23.380000000000372,1.6717711e-08
23.390000000000374,1.6845485000000002e-08
23.400000000000375,1.7070422e-08
23.410000000000377,1.7193436999999998e-08
23.42000000000038,1.7389432e-08
23.43000000000038,1.735656e-08
23.44000000000038,1.7454971e-08
23.450000000000383,1.7587080999999997e-08
23.460000000000385,1.7730975999999997e-08
23.470000000000386,1.7799621e-08
23.480000000000388,1.8187477e-08
23.49000000000039,1.8223656e-08
