Keithley 6487, temperature 3.810 kOhm, IV-curve with average sweep, 10 points per voltage, LED 500 uA, voltage step 0.01
 Sweep settings: Start voltage: 21 V, end voltage:  23.5 V, sweep points: 250.0, current limit: 0.0025 A
 U/V, I/A, R/Ohm
21,9.4957306e-10
21.01,1.0000191199999998e-09
21.020000000000003,1.0471575e-09
21.030000000000005,8.383434600000001e-10
21.040000000000006,1.39904e-09
21.050000000000008,8.1312062e-10
21.06000000000001,5.480691399999999e-10
21.07000000000001,1.10752634e-09
21.080000000000013,1.84189054e-09
21.090000000000014,7.155346839999999e-10
21.100000000000016,1.31344658e-09
21.110000000000017,1.6678098e-09
21.12000000000002,1.0719667e-09
21.13000000000002,1.3328807999999999e-09
21.140000000000022,1.4995186e-09
21.150000000000023,1.4474182e-09
21.160000000000025,1.3928374e-09
21.170000000000027,1.4726415e-09
21.180000000000028,1.52680886e-09
21.19000000000003,1.6562318000000001e-09
21.20000000000003,1.8915089999999995e-09
21.210000000000033,1.934926e-09
21.220000000000034,2.0999096e-09
21.230000000000036,2.0643492e-09
21.240000000000038,1.9469174e-09
21.25000000000004,2.3244364000000004e-09
21.26000000000004,2.1739246e-09
21.270000000000042,2.3050014e-09
21.280000000000044,2.3508994e-09
21.290000000000045,2.4042406e-09
21.300000000000047,2.5468953999999997e-09
21.31000000000005,2.667222e-09
21.32000000000005,2.5907257999999997e-09
21.33000000000005,2.634969e-09
21.340000000000053,3.1435647999999997e-09
21.350000000000055,3.1588642000000005e-09
21.360000000000056,3.2630644000000003e-09
21.370000000000058,3.2324666e-09
21.38000000000006,3.4272218000000002e-09
21.39000000000006,3.5380379999999997e-09
21.400000000000063,3.6782113999999995e-09
21.410000000000064,3.6881354e-09
21.420000000000066,3.8394736e-09
21.430000000000067,3.933336399999999e-09
21.44000000000007,4.706154e-09
21.45000000000007,3.5388642e-09
21.460000000000072,4.32326e-09
21.470000000000073,5.1936622e-09
21.480000000000075,4.341867e-09
21.490000000000077,4.019343e-09
21.500000000000078,5.5302454e-09
21.51000000000008,4.7169052e-09
21.52000000000008,5.0080034e-09
21.530000000000083,5.0030426000000005e-09
21.540000000000084,5.494684200000001e-09
21.550000000000086,5.5347936e-09
21.560000000000088,5.7506364e-09
21.57000000000009,5.8792328e-09
21.58000000000009,6.032225600000001e-09
21.590000000000092,6.4002344e-09
21.600000000000094,6.4473732000000004e-09
21.610000000000095,6.4870662e-09
21.620000000000097,6.678515e-09
21.6300000000001,7.0241934e-09
21.6400000000001,7.3107470000000005e-09
21.6500000000001,7.262366199999999e-09
21.660000000000103,7.345066e-09
21.670000000000105,7.736228999999999e-09
21.680000000000106,8.0558598e-09
21.690000000000108,7.7213424e-09
21.70000000000011,8.1522026e-09
21.71000000000011,8.475140000000001e-09
21.720000000000113,8.538406999999999e-09
21.730000000000114,8.755074e-09
21.740000000000116,8.883673000000002e-09
21.750000000000117,9.244650799999999e-09
21.76000000000012,9.254987999999999e-09
21.77000000000012,9.5667616e-09
21.780000000000122,9.687087599999999e-09
21.790000000000123,9.959578800000001e-09
21.800000000000125,1.00244968e-08
21.810000000000127,1.0388374e-08
21.820000000000128,1.0519032000000002e-08
21.83000000000013,1.0905647999999999e-08
21.84000000000013,1.109875e-08
21.850000000000133,1.1295573999999999e-08
21.860000000000134,1.1535814e-08
21.870000000000136,1.1733876e-08
21.880000000000138,1.2063430000000002e-08
21.89000000000014,1.2309044e-08
21.90000000000014,1.2393808e-08
21.910000000000142,1.2782906000000001e-08
21.920000000000144,1.2972286e-08
21.930000000000145,1.3283236e-08
21.940000000000147,1.3408515999999999e-08
21.95000000000015,1.3680600000000002e-08
21.96000000000015,1.3970040000000002e-08
21.97000000000015,1.4113933999999999e-08
21.980000000000153,1.4417856000000001e-08
21.990000000000155,1.4742445999999999e-08
22.000000000000156,1.5014112e-08
22.010000000000158,1.5215894e-08
22.02000000000016,1.5411482e-08
22.03000000000016,1.5826624000000003e-08
22.040000000000163,1.5987477999999996e-08
22.050000000000164,1.6441076000000003e-08
22.060000000000166,1.675161e-08
22.070000000000167,1.6868627999999998e-08
22.08000000000017,1.7257722e-08
22.09000000000017,1.7723316e-08
22.100000000000172,1.75972e-08
22.110000000000174,1.7969342e-08
22.120000000000175,1.8337358e-08
22.130000000000177,1.8623908e-08
22.140000000000178,1.8988192e-08
22.15000000000018,1.922223e-08
22.16000000000018,1.9552193999999998e-08
22.170000000000183,1.9850738e-08
22.180000000000184,2.0254301999999998e-08
22.190000000000186,2.0537542e-08
22.200000000000188,2.091879e-08
22.21000000000019,2.1077152e-08
22.22000000000019,2.1553086000000002e-08
22.230000000000192,2.1974432e-08
22.240000000000194,2.2587644000000002e-08
22.250000000000195,2.2717896e-08
22.260000000000197,2.2526034e-08
22.2700000000002,2.2789844e-08
22.2800000000002,2.3013544e-08
22.2900000000002,2.3633365999999998e-08
22.300000000000203,2.4263531999999998e-08
22.310000000000205,2.4265186e-08
22.320000000000206,2.4736156e-08
22.330000000000208,2.5300988e-08
22.34000000000021,2.546225e-08
22.35000000000021,2.6002685999999997e-08
22.360000000000213,2.627518e-08
22.370000000000214,2.6701896e-08
22.380000000000216,2.7059568e-08
22.390000000000217,2.7263832000000004e-08
22.40000000000022,2.7657479999999998e-08
22.41000000000022,2.8115625999999998e-08
22.420000000000222,2.8445177999999998e-08
22.430000000000224,2.8833862e-08
22.440000000000225,2.9349072000000003e-08
22.450000000000227,2.9632316e-08
22.46000000000023,2.9907708e-08
22.47000000000023,3.0607752e-08
22.48000000000023,3.0836824e-08
22.490000000000233,3.1279680000000003e-08
22.500000000000234,3.1528187999999997e-08
22.510000000000236,3.1901158e-08
22.520000000000238,3.240232e-08
22.53000000000024,3.2842263999999995e-08
22.54000000000024,3.3287604e-08
22.550000000000242,3.3639074e-08
22.560000000000244,3.4013278000000004e-08
22.570000000000245,3.4440826e-08
22.580000000000247,3.5054868e-08
22.59000000000025,3.554692e-08
22.60000000000025,3.5809486e-08
22.61000000000025,3.6286660000000003e-08
22.620000000000253,3.6626544e-08
22.630000000000255,3.704087e-08
22.640000000000256,3.7469664e-08
22.650000000000258,3.8071294000000005e-08
22.66000000000026,3.8940046e-08
22.67000000000026,3.9163328000000003e-08
22.680000000000263,3.8829641999999996e-08
22.690000000000264,3.9145964e-08
22.700000000000266,4.0037456e-08
22.710000000000267,4.0719308e-08
22.72000000000027,4.1324244000000005e-08
22.73000000000027,4.2276518e-08
22.740000000000272,4.2339368e-08
22.750000000000274,4.2555211999999994e-08
22.760000000000275,4.2986482e-08
22.770000000000277,4.3444218000000005e-08
22.78000000000028,4.399995e-08
22.79000000000028,4.4387404e-08
22.80000000000028,4.5114725999999996e-08
22.810000000000283,4.5429814e-08
22.820000000000285,4.595287e-08
22.830000000000286,4.6338254e-08
22.840000000000288,4.699239e-08
22.85000000000029,4.743731799999999e-08
22.86000000000029,4.8140252e-08
22.870000000000292,4.8411502000000004e-08
22.880000000000294,4.8984604e-08
22.890000000000295,4.9510983999999994e-08
22.900000000000297,5.0014206e-08
22.9100000000003,5.0455810000000004e-08
22.9200000000003,5.110374200000001e-08
22.9300000000003,5.166692599999999e-08
22.940000000000303,5.2203642e-08
22.950000000000305,5.2656418000000006e-08
22.960000000000306,5.3207602e-08
22.970000000000308,5.3858852e-08
22.98000000000031,5.491655799999999e-08
22.99000000000031,5.5409436e-08
23.000000000000313,5.527794199999999e-08
23.010000000000314,5.6055316e-08
23.020000000000316,5.609253000000001e-08
23.030000000000317,5.7039024000000006e-08
23.04000000000032,5.7519922e-08
23.05000000000032,5.8126512000000005e-08
23.060000000000322,5.8949355999999995e-08
23.070000000000324,5.9612188e-08
23.080000000000325,6.018776199999999e-08
23.090000000000327,6.069759600000001e-08
23.10000000000033,6.1309144e-08
23.11000000000033,6.1922768e-08
23.12000000000033,6.2368106e-08
23.130000000000333,6.2859338e-08
23.140000000000335,6.369873400000001e-08
23.150000000000336,6.4273074e-08
23.160000000000338,6.4749824e-08
23.17000000000034,6.5369228e-08
23.18000000000034,6.588570000000001e-08
23.190000000000342,6.660102400000001e-08
23.200000000000344,6.720679000000001e-08
23.210000000000345,6.7809658e-08
23.220000000000347,6.8511366e-08
23.23000000000035,6.8990606e-08
23.24000000000035,6.998092e-08
23.25000000000035,7.048247200000001e-08
23.260000000000353,7.103202399999999e-08
23.270000000000355,7.156336e-08
23.280000000000356,7.2198068e-08
23.290000000000358,7.3498498e-08
23.30000000000036,7.355225600000001e-08
23.31000000000036,7.4382972e-08
23.320000000000363,7.490684600000001e-08
23.330000000000364,7.5520872e-08
23.340000000000366,7.6346206e-08
23.350000000000367,7.723028599999999e-08
23.36000000000037,7.7836464e-08
23.37000000000037,7.843352e-08
23.380000000000372,7.859687399999999e-08
23.390000000000374,7.973314000000001e-08
23.400000000000375,8.0190892e-08
23.410000000000377,8.061222000000001e-08
23.42000000000038,8.191059599999999e-08
23.43000000000038,8.2735508e-08
23.44000000000038,8.3390484e-08
23.450000000000383,8.415915999999999e-08
23.460000000000385,8.468264999999999e-08
23.470000000000386,8.5650232e-08
23.480000000000388,8.611872599999999e-08
23.49000000000039,8.7022212e-08
