Keithley6487, temperature 1.132 kOhm, IV-curve for dark current with closed shutter and LED power off, voltage step 0.01
 Sweep settings: Start voltage: 25 V, end voltage:  26.6 V, sweep points: 320.0000000000003, current limit: 2.5e-06 A
 U/V, I/A, R/Ohm
25,+4.736503E-10
25.005,+6.204451E-10
25.009999999999998,+1.290326E-09
25.014999999999997,+1.327542E-09
25.019999999999996,+3.620034E-10
25.024999999999995,+2.503565E-10
25.029999999999994,-7.131212E-10
25.034999999999993,+4.385021E-10
25.039999999999992,+9.119674E-10
25.04499999999999,+9.409126E-10
25.04999999999999,+4.736502E-10
25.05499999999999,-2.256006E-11
25.059999999999988,-2.148421E-10
25.064999999999987,-1.879639E-10
25.069999999999986,+3.950839E-10
25.074999999999985,+1.348217E-09
25.079999999999984,+1.120788E-09
25.084999999999983,+3.413280E-10
25.089999999999982,-6.490274E-10
25.09499999999998,-1.776262E-10
25.09999999999998,+4.571100E-10
25.10499999999998,+5.832294E-10
25.109999999999978,+1.515687E-09
25.114999999999977,+9.698583E-10
25.119999999999976,+4.012865E-10
25.124999999999975,-6.593651E-10
25.129999999999974,-2.706657E-10
25.134999999999973,+3.330579E-10
25.139999999999972,+1.358555E-09
25.14499999999997,+8.892246E-10
25.14999999999997,+2.917073E-10
25.15499999999997,-7.834182E-10
25.159999999999968,-2.065719E-10
25.164999999999967,+4.054216E-10
25.169999999999966,+9.036971E-10
25.174999999999965,+9.801958E-10
25.179999999999964,+8.209957E-10
25.184999999999963,+4.054215E-10
25.189999999999962,-6.345543E-10
25.19499999999996,-3.492326E-10
25.19999999999996,+2.834371E-10
25.20499999999996,+1.176612E-09
25.209999999999958,+1.095978E-09
25.214999999999957,+2.420864E-10
25.219999999999956,-1.693561E-10
25.224999999999955,-1.817612E-10
25.229999999999954,+3.826787E-10
25.234999999999953,+1.160071E-09
25.239999999999952,+9.719257E-10
25.24499999999995,-8.251883E-11
25.24999999999995,-1.445453E-10
25.25499999999995,+4.695151E-10
25.25999999999995,+3.764762E-10
25.264999999999947,+1.013277E-09
25.269999999999946,+8.892244E-10
25.274999999999945,+2.462215E-10
25.279999999999944,+2.090056E-10
25.284999999999943,-8.413090E-10
25.289999999999942,+3.909488E-10
25.29499999999994,+1.209692E-09
25.29999999999994,+8.954270E-10
25.30499999999994,+2.917072E-10
25.30999999999994,-1.300725E-10
25.314999999999937,-9.488218E-10
25.319999999999936,+3.785437E-10
25.324999999999935,+1.205557E-09
25.329999999999934,+9.450479E-10
25.334999999999933,+2.958423E-10
25.339999999999932,-4.360696E-10
25.34499999999993,-1.900315E-10
25.34999999999993,+8.375362E-10
25.35499999999993,+9.140346E-10
25.35999999999993,+3.495982E-10
25.364999999999927,-1.962339E-10
25.369999999999926,-1.838288E-10
25.374999999999925,+3.785436E-10
25.379999999999924,+5.604866E-10
25.384999999999923,+1.058762E-09
25.389999999999922,+4.302320E-10
25.39499999999992,-1.714234E-10
25.39999999999992,-4.650152E-10
25.40499999999992,+4.757177E-10
25.40999999999992,+7.300243E-10
25.414999999999917,+1.100113E-09
25.419999999999916,+8.912919E-10
25.424999999999915,-1.693560E-10
25.429999999999914,-3.202871E-10
25.434999999999913,+4.426371E-10
25.439999999999912,+8.334008E-10
25.44499999999991,+1.315136E-09
25.44999999999991,+5.191358E-10
25.45499999999991,-1.424777E-10
25.45999999999991,-8.251883E-11
25.464999999999907,-6.304192E-10
25.469999999999906,+2.544916E-10
25.474999999999905,+9.367775E-10
25.479999999999905,+9.264401E-10
25.484999999999904,+4.798527E-10
25.489999999999903,+4.318185E-12
25.4949999999999,-2.872061E-10
25.4999999999999,+4.302320E-10
25.5049999999999,+1.137329E-09
25.5099999999999,+4.116242E-10
25.514999999999898,+8.908772E-11
25.519999999999897,+1.511141E-10
25.524999999999896,+3.578683E-10
25.529999999999895,+9.036971E-10
25.534999999999894,+6.514580E-10
25.539999999999893,+4.509073E-10
25.54499999999989,-9.285656E-11
25.54999999999989,+1.573169E-10
25.55499999999989,+2.917072E-10
25.55999999999989,+7.196864E-10
25.564999999999888,+5.418787E-10
25.569999999999887,+4.074891E-10
25.574999999999886,+4.054216E-10
25.579999999999885,+2.917072E-10
25.584999999999884,+5.005280E-10
25.589999999999883,+3.785436E-10
25.59499999999988,+3.971514E-10
25.59999999999988,+3.682059E-10
25.60499999999988,+1.221686E-10
25.60999999999988,+3.475306E-10
25.614999999999878,+4.674474E-10
25.619999999999877,+4.571098E-10
25.624999999999876,+3.020449E-10
25.629999999999875,+2.855046E-10
25.634999999999874,+4.860553E-10
25.639999999999873,+4.219618E-10
25.64499999999987,+3.433956E-10
25.64999999999987,+4.054215E-10
25.65499999999987,+2.751670E-10
25.65999999999987,+4.385020E-10
25.664999999999868,+4.488396E-10
25.669999999999867,+3.764760E-10
25.674999999999866,+4.571098E-10
25.679999999999865,+3.227202E-10
25.684999999999864,+3.578683E-10
25.689999999999863,+4.116241E-10
25.69499999999986,+3.516657E-10
25.69999999999986,+1.593844E-10
25.70499999999986,+1.759248E-10
25.70999999999986,+3.971514E-10
25.714999999999858,+6.762682E-10
25.719999999999857,+4.860552E-10
25.724999999999856,+3.144501E-10
25.729999999999855,-1.135319E-10
25.734999999999854,+7.875002E-11
25.739999999999853,+4.116242E-10
25.744999999999852,+5.563515E-10
25.74999999999985,+7.403619E-10
25.75499999999985,+2.730994E-10
25.75999999999985,-2.189770E-10
25.764999999999848,+6.841232E-11
25.769999999999847,+4.033539E-10
25.774999999999846,+8.375355E-10
25.779999999999845,+6.142423E-10
25.784999999999844,+2.565592E-10
25.789999999999843,-2.231121E-10
25.794999999999842,-1.879636E-10
25.79999999999984,+6.307826E-10
25.80499999999984,+1.220029E-09
25.80999999999984,+1.779924E-10
25.814999999999838,-6.804582E-11
25.819999999999837,-2.024363E-10
25.824999999999836,+4.219618E-10
25.829999999999835,+7.527671E-10
25.834999999999834,+1.143530E-09
25.839999999999833,+9.202371E-10
25.844999999999832,-1.941664E-10
25.84999999999983,-8.537144E-10
25.85499999999983,+3.950838E-10
25.85999999999983,+1.029816E-09
25.864999999999828,+1.523956E-09
25.869999999999827,+1.189016E-09
25.874999999999826,+2.524241E-10
25.879999999999825,-7.234587E-10
25.884999999999824,-6.138785E-10
25.889999999999823,-5.870004E-10
25.894999999999822,+3.682059E-10
25.89999999999982,+1.052559E-09
25.90499999999982,+1.033951E-09
25.90999999999982,+3.661384E-10
25.914999999999818,-4.071237E-10
25.919999999999817,-1.983013E-10
25.924999999999816,+4.136916E-10
25.929999999999815,+2.979098E-10
25.934999999999814,+1.263447E-09
25.939999999999813,+1.100112E-09
25.944999999999812,+2.689644E-10
25.94999999999981,-1.528153E-10
25.95499999999981,-3.740429E-10
25.95999999999981,+3.599358E-10
25.964999999999808,+9.098993E-10
25.969999999999807,+1.019479E-09
25.974999999999806,+3.165176E-10
25.979999999999805,-2.127740E-10
25.984999999999804,-2.458548E-10
25.989999999999803,+4.240293E-10
25.994999999999802,+6.411201E-10
25.9999999999998,+1.011208E-09
26.0049999999998,+4.426371E-10
26.0099999999998,-2.582601E-10
26.014999999999798,+9.322297E-11
26.019999999999797,+5.522161E-10
26.024999999999796,+8.251303E-10
26.029999999999795,+4.136916E-10
26.034999999999794,+2.482890E-10
26.039999999999793,+1.635196E-10
26.044999999999792,+2.958423E-10
26.04999999999979,+6.473228E-10
26.05499999999979,+5.811617E-10
26.05999999999979,+3.061799E-10
26.064999999999788,+1.325063E-10
26.069999999999787,+2.296811E-10
26.074999999999786,+3.950838E-10
26.079999999999785,+3.826786E-10
26.084999999999784,+3.247877E-10
26.089999999999783,+3.992189E-10
26.094999999999782,+2.710319E-10
26.09999999999978,+2.937748E-10
26.10499999999978,+2.214109E-10
26.10999999999978,+3.578683E-10
26.114999999999778,+4.633124E-10
26.119999999999777,+5.646214E-10
26.124999999999776,+3.268553E-10
26.129999999999775,-1.445450E-10
26.134999999999774,+3.165176E-10
26.139999999999773,+5.439461E-10
26.144999999999772,+5.150006E-10
26.14999999999977,+2.912902E-11
26.15499999999977,+6.220972E-11
26.15999999999977,+3.516656E-10
26.164999999999768,+9.512500E-10
26.169999999999767,+7.486317E-10
26.174999999999766,+4.012864E-10
26.179999999999765,-1.796932E-10
26.184999999999764,+4.405695E-10
26.189999999999763,+8.313329E-10
26.194999999999762,+1.164205E-09
26.19999999999976,+3.413280E-10
26.20499999999976,-5.977557E-11
26.20999999999976,+2.400188E-10
26.21499999999976,+5.873644E-10
26.219999999999757,+5.956344E-10
26.224999999999756,+2.524241E-10
26.229999999999755,+1.903977E-10
26.234999999999754,+4.136916E-10
26.239999999999753,+5.191356E-10
26.244999999999752,+5.625538E-10
26.24999999999975,+3.950838E-10
26.25499999999975,-1.015432E-11
26.25999999999975,+3.289228E-10
26.26499999999975,+4.529747E-10
26.269999999999747,+3.309903E-10
26.274999999999746,+3.537332E-10
26.279999999999745,+8.288520E-11
26.284999999999744,+2.462215E-10
26.289999999999743,+4.322994E-10
26.294999999999742,+2.958423E-10
26.29999999999974,+3.165176E-10
26.30499999999974,+3.785435E-10
26.30999999999974,+3.578682E-10
26.31499999999974,+2.710319E-10
26.319999999999737,+1.924652E-10
26.324999999999736,+3.723410E-10
26.329999999999735,+3.785435E-10
26.334999999999734,+4.095564E-10
26.339999999999733,+2.875722E-10
26.344999999999732,+3.020449E-10
26.34999999999973,-9.078879E-11
26.35499999999973,+4.695149E-10
26.35999999999973,+7.837798E-10
26.36499999999973,+8.189277E-10
26.369999999999727,+3.020449E-10
26.374999999999726,-2.462719E-11
26.379999999999725,+1.056283E-10
26.384999999999724,+5.418785E-10
26.389999999999723,+6.039044E-10
26.394999999999722,+2.979098E-10
26.39999999999972,-2.189768E-10
26.40499999999972,+3.533165E-11
26.40999999999972,+4.302318E-10
26.41499999999972,+2.875722E-10
26.419999999999717,+7.775769E-10
26.424999999999716,+6.907407E-10
26.429999999999715,+3.826786E-10
26.434999999999715,-4.737014E-11
26.439999999999714,-1.672879E-10
26.444999999999713,+7.631044E-10
26.44999999999971,+7.072811E-10
26.45499999999971,+3.165176E-10
26.45999999999971,-3.910000E-11
26.46499999999971,+1.263038E-10
26.469999999999708,+1.947799E-09
26.474999999999707,+7.651718E-10
26.479999999999706,+9.657224E-10
26.484999999999705,+1.738573E-10
26.489999999999704,+2.668968E-10
26.494999999999703,-1.842451E-11
26.4999999999997,-3.951811E-12
26.5049999999997,+3.231735E-09
26.5099999999997,+1.265514E-09
26.5149999999997,+9.429795E-10
26.519999999999698,+1.509483E-09
26.524999999999697,+2.158688E-09
26.529999999999696,+1.749629E-07
26.534999999999695,+9.057248E-08
26.539999999999694,+1.901738E-07
26.544999999999693,+2.497827E-07
26.54999999999969,+5.820949E-07
26.55499999999969,+9.623448E-07
26.55999999999969,+2.583981E-07
26.56499999999969,+1.395608E-06
26.569999999999688,+2.704047E-06
26.574999999999687,+2.279688E-06
26.579999999999686,+3.754870E-06
26.584999999999685,+4.074540E-06
26.589999999999684,+5.061227E-06
26.594999999999683,+5.800089E-06
26.59999999999968,+6.378812E-06
